Si/Ir d=17.nm s=0.nm N=15 at 90.deg, P=1.
Wavelength (nm), Reflectivity, Phase(deg)
  1.00000  2.051717E-04 -105.422
  1.50000  5.315649E-06  26.3334
  2.00000  2.231587E-04 -115.093
  2.50000  1.914583E-05  18.1778
  3.00000  4.000707E-06  139.835
  3.50000  4.633621E-05  13.6609
  4.00000  1.544513E-05  10.9214
  4.50000  1.000261E-05  74.1117
  5.00000  1.094703E-04  45.3964
  5.50000  1.222633E-04  139.206
  6.00000  1.018935E-04  31.8282
  6.50000  1.453380E-04  69.1295
  7.00000  1.984267E-05  8.88580
  7.50000  4.774485E-05  49.1923
  8.00000  6.053265E-05  54.0213
  8.50000  8.899626E-05  48.4208
  9.00000  1.456956E-04  62.4355
  9.50000  2.405981E-04  75.4279
  10.0000  4.287055E-04  91.1545
  10.5000  1.121729E-03  116.238
  11.0000  7.691868E-03  169.072
  11.5000  7.883880E-03 -60.9688
  12.0000  2.371853E-03 -11.9042
  12.5000  2.538150E-03  14.2219
  13.0000  2.515357E-03  33.0794
  13.5000  2.785756E-03  46.1739
  14.0000  4.429216E-03  64.8451
  14.5000  6.990311E-03  79.2389
  15.0000  1.546670E-02  96.3632
  15.5000  4.482636E-02  122.690
  16.0000  0.139530  168.580
  16.5000  0.219943 -122.489
  17.0000  7.793222E-02 -73.1672
  17.5000  4.074588E-02 -50.9437
  18.0000  2.778971E-02 -33.5956
  18.5000  2.153927E-02 -18.5029
  19.0000  1.732023E-02 -5.91821
  19.5000  1.427933E-02  4.56462
  20.0000  1.245399E-02  12.3763
  20.5000  1.162859E-02  18.8734
  21.0000  1.133281E-02  24.6397
  21.5000  1.167104E-02  30.4902
  22.0000  1.213183E-02  36.5388
  22.5000  1.277634E-02  42.7155
  23.0000  1.355330E-02  48.8989
  23.5000  1.448674E-02  55.4100
  24.0000  1.549517E-02  62.2793
  24.5000  1.650421E-02  70.0266
  25.0000  1.620209E-02  79.3857
  25.5000  1.376083E-02  82.2261
  26.0000  1.451331E-02  81.3278
  26.5000  1.848125E-02  82.6522
  27.0000  2.405855E-02  87.4974
  27.5000  3.137907E-02  93.9112
  28.0000  4.211941E-02  101.562
  28.5000  5.779154E-02  111.088
  29.0000  8.020129E-02  122.531
  29.5000  0.111950  136.271
  30.0000  0.154564  152.852
  30.5000  0.204379  172.938
  31.0000  0.239929 -162.636
  31.5000  0.207893 -135.534
  32.0000  0.129146 -116.430
  32.5000  9.080455E-02 -107.149
  33.0000  7.280198E-02 -98.0132
  33.5000  5.738185E-02 -90.2705
  34.0000  4.806998E-02 -85.3759
  34.5000  4.404783E-02 -80.5886
  35.0000  4.070294E-02 -75.1910
  35.5000  3.748927E-02 -70.8388
  36.0000  3.590739E-02 -67.4230
  36.5000  3.561560E-02 -63.9615
  37.0000  3.552166E-02 -60.2529
  37.5000  3.554439E-02 -56.9895
  38.0000  3.624757E-02 -54.0125
  38.5000  3.748659E-02 -50.8720
  39.0000  3.852337E-02 -47.6060
  39.5000  3.944164E-02 -44.6414
  40.0000  4.056407E-02 -41.9710
  40.5000  4.201570E-02 -39.4758
  41.0000  4.374712E-02 -37.0513
